# E (eV)   ldos(E)   pdos(E)   
 -12.000  0.295E-01  0.295E-01
 -11.990  0.281E-01  0.281E-01
 -11.980  0.269E-01  0.269E-01
 -11.970  0.259E-01  0.259E-01
 -11.960  0.250E-01  0.250E-01
 -11.950  0.243E-01  0.243E-01
 -11.940  0.237E-01  0.237E-01
 -11.930  0.233E-01  0.233E-01
 -11.920  0.230E-01  0.230E-01
 -11.910  0.229E-01  0.229E-01
 -11.900  0.228E-01  0.228E-01
 -11.890  0.227E-01  0.227E-01
 -11.880  0.227E-01  0.227E-01
 -11.870  0.226E-01  0.226E-01
 -11.860  0.225E-01  0.225E-01
 -11.850  0.223E-01  0.223E-01
 -11.840  0.220E-01  0.220E-01
 -11.830  0.216E-01  0.216E-01
 -11.820  0.211E-01  0.211E-01
 -11.810  0.205E-01  0.205E-01
 -11.800  0.199E-01  0.199E-01
 -11.790  0.193E-01  0.193E-01
 -11.780  0.187E-01  0.187E-01
 -11.770  0.181E-01  0.181E-01
 -11.760  0.177E-01  0.177E-01
 -11.750  0.173E-01  0.173E-01
 -11.740  0.172E-01  0.172E-01
 -11.730  0.172E-01  0.172E-01
 -11.720  0.175E-01  0.175E-01
 -11.710  0.181E-01  0.181E-01
 -11.700  0.189E-01  0.189E-01
 -11.690  0.201E-01  0.201E-01
 -11.680  0.215E-01  0.215E-01
 -11.670  0.232E-01  0.232E-01
 -11.660  0.251E-01  0.251E-01
 -11.650  0.272E-01  0.272E-01
 -11.640  0.295E-01  0.295E-01
 -11.630  0.319E-01  0.319E-01
 -11.620  0.342E-01  0.342E-01
 -11.610  0.365E-01  0.365E-01
 -11.600  0.387E-01  0.387E-01
 -11.590  0.407E-01  0.407E-01
 -11.580  0.425E-01  0.425E-01
 -11.570  0.439E-01  0.439E-01
 -11.560  0.449E-01  0.449E-01
 -11.550  0.455E-01  0.455E-01
 -11.540  0.457E-01  0.457E-01
 -11.530  0.455E-01  0.455E-01
 -11.520  0.448E-01  0.448E-01
 -11.510  0.437E-01  0.437E-01
 -11.500  0.422E-01  0.422E-01
 -11.490  0.405E-01  0.405E-01
 -11.480  0.384E-01  0.384E-01
 -11.470  0.362E-01  0.362E-01
 -11.460  0.338E-01  0.338E-01
 -11.450  0.314E-01  0.314E-01
 -11.440  0.290E-01  0.290E-01
 -11.430  0.267E-01  0.267E-01
 -11.420  0.246E-01  0.246E-01
 -11.410  0.226E-01  0.226E-01
 -11.400  0.208E-01  0.208E-01
 -11.390  0.194E-01  0.194E-01
 -11.380  0.182E-01  0.182E-01
 -11.370  0.173E-01  0.173E-01
 -11.360  0.166E-01  0.166E-01
 -11.350  0.163E-01  0.163E-01
 -11.340  0.162E-01  0.162E-01
 -11.330  0.163E-01  0.163E-01
 -11.320  0.166E-01  0.166E-01
 -11.310  0.170E-01  0.170E-01
 -11.300  0.175E-01  0.175E-01
 -11.290  0.181E-01  0.181E-01
 -11.280  0.188E-01  0.188E-01
 -11.270  0.194E-01  0.194E-01
 -11.260  0.199E-01  0.199E-01
 -11.250  0.204E-01  0.204E-01
 -11.240  0.208E-01  0.208E-01
 -11.230  0.211E-01  0.211E-01
 -11.220  0.213E-01  0.213E-01
 -11.210  0.215E-01  0.215E-01
 -11.200  0.215E-01  0.215E-01
 -11.190  0.215E-01  0.215E-01
 -11.180  0.216E-01  0.216E-01
 -11.170  0.216E-01  0.216E-01
 -11.160  0.217E-01  0.217E-01
 -11.150  0.220E-01  0.220E-01
 -11.140  0.223E-01  0.223E-01
 -11.130  0.229E-01  0.229E-01
 -11.120  0.237E-01  0.237E-01
 -11.110  0.247E-01  0.247E-01
 -11.100  0.260E-01  0.260E-01
 -11.090  0.275E-01  0.275E-01
 -11.080  0.291E-01  0.291E-01
 -11.070  0.310E-01  0.310E-01
 -11.060  0.330E-01  0.330E-01
 -11.050  0.351E-01  0.351E-01
 -11.040  0.372E-01  0.372E-01
 -11.030  0.393E-01  0.393E-01
 -11.020  0.413E-01  0.413E-01
 -11.010  0.431E-01  0.431E-01
 -11.000  0.446E-01  0.446E-01
 -10.990  0.459E-01  0.459E-01
 -10.980  0.468E-01  0.468E-01
 -10.970  0.473E-01  0.473E-01
 -10.960  0.474E-01  0.474E-01
 -10.950  0.470E-01  0.470E-01
 -10.940  0.463E-01  0.463E-01
 -10.930  0.451E-01  0.451E-01
 -10.920  0.436E-01  0.436E-01
 -10.910  0.418E-01  0.418E-01
 -10.900  0.398E-01  0.398E-01
 -10.890  0.375E-01  0.375E-01
 -10.880  0.351E-01  0.351E-01
 -10.870  0.326E-01  0.326E-01
 -10.860  0.302E-01  0.302E-01
 -10.850  0.278E-01  0.278E-01
 -10.840  0.255E-01  0.255E-01
 -10.830  0.234E-01  0.234E-01
 -10.820  0.216E-01  0.216E-01
 -10.810  0.199E-01  0.199E-01
 -10.800  0.186E-01  0.186E-01
 -10.790  0.176E-01  0.176E-01
 -10.780  0.168E-01  0.168E-01
 -10.770  0.163E-01  0.163E-01
 -10.760  0.160E-01  0.160E-01
 -10.750  0.160E-01  0.160E-01
 -10.740  0.162E-01  0.162E-01
 -10.730  0.165E-01  0.165E-01
 -10.720  0.170E-01  0.170E-01
 -10.710  0.175E-01  0.175E-01
 -10.700  0.181E-01  0.181E-01
 -10.690  0.186E-01  0.186E-01
 -10.680  0.192E-01  0.192E-01
 -10.670  0.197E-01  0.197E-01
 -10.660  0.201E-01  0.201E-01
 -10.650  0.205E-01  0.205E-01
 -10.640  0.209E-01  0.209E-01
 -10.630  0.212E-01  0.212E-01
 -10.620  0.215E-01  0.215E-01
 -10.610  0.218E-01  0.218E-01
 -10.600  0.222E-01  0.222E-01
 -10.590  0.227E-01  0.227E-01
 -10.580  0.233E-01  0.233E-01
 -10.570  0.240E-01  0.240E-01
 -10.560  0.250E-01  0.250E-01
 -10.550  0.262E-01  0.262E-01
 -10.540  0.276E-01  0.276E-01
 -10.530  0.292E-01  0.292E-01
 -10.520  0.311E-01  0.311E-01
 -10.510  0.331E-01  0.331E-01
 -10.500  0.353E-01  0.353E-01
 -10.490  0.375E-01  0.375E-01
 -10.480  0.398E-01  0.398E-01
 -10.470  0.421E-01  0.421E-01
 -10.460  0.442E-01  0.442E-01
 -10.450  0.462E-01  0.462E-01
 -10.440  0.479E-01  0.479E-01
 -10.430  0.493E-01  0.493E-01
 -10.420  0.504E-01  0.504E-01
 -10.410  0.510E-01  0.510E-01
 -10.400  0.513E-01  0.513E-01
 -10.390  0.511E-01  0.511E-01
 -10.380  0.505E-01  0.505E-01
 -10.370  0.495E-01  0.495E-01
 -10.360  0.482E-01  0.482E-01
 -10.350  0.466E-01  0.466E-01
 -10.340  0.448E-01  0.448E-01
 -10.330  0.428E-01  0.428E-01
 -10.320  0.407E-01  0.407E-01
 -10.310  0.386E-01  0.386E-01
 -10.300  0.365E-01  0.365E-01
 -10.290  0.345E-01  0.345E-01
 -10.280  0.327E-01  0.327E-01
 -10.270  0.310E-01  0.310E-01
 -10.260  0.295E-01  0.295E-01
 -10.250  0.282E-01  0.282E-01
 -10.240  0.271E-01  0.271E-01
 -10.230  0.262E-01  0.262E-01
 -10.220  0.254E-01  0.254E-01
 -10.210  0.248E-01  0.248E-01
 -10.200  0.243E-01  0.243E-01
 -10.190  0.239E-01  0.239E-01
 -10.180  0.235E-01  0.235E-01
 -10.170  0.232E-01  0.232E-01
 -10.160  0.230E-01  0.230E-01
 -10.150  0.228E-01  0.228E-01
 -10.140  0.226E-01  0.226E-01
 -10.130  0.224E-01  0.224E-01
 -10.120  0.223E-01  0.223E-01
 -10.110  0.222E-01  0.222E-01
 -10.100  0.223E-01  0.223E-01
 -10.090  0.224E-01  0.224E-01
 -10.080  0.227E-01  0.227E-01
 -10.070  0.231E-01  0.231E-01
 -10.060  0.236E-01  0.236E-01
 -10.050  0.243E-01  0.243E-01
 -10.040  0.253E-01  0.253E-01
 -10.030  0.264E-01  0.264E-01
 -10.020  0.277E-01  0.277E-01
 -10.010  0.292E-01  0.292E-01
 -10.000  0.309E-01  0.309E-01
  -9.990  0.327E-01  0.327E-01
  -9.980  0.347E-01  0.347E-01
  -9.970  0.368E-01  0.368E-01
  -9.960  0.390E-01  0.390E-01
  -9.950  0.413E-01  0.413E-01
  -9.940  0.436E-01  0.436E-01
  -9.930  0.458E-01  0.458E-01
  -9.920  0.480E-01  0.480E-01
  -9.910  0.501E-01  0.501E-01
  -9.900  0.521E-01  0.521E-01
  -9.890  0.539E-01  0.539E-01
  -9.880  0.555E-01  0.555E-01
  -9.870  0.569E-01  0.569E-01
  -9.860  0.580E-01  0.580E-01
  -9.850  0.588E-01  0.588E-01
  -9.840  0.593E-01  0.593E-01
  -9.830  0.596E-01  0.596E-01
  -9.820  0.595E-01  0.595E-01
  -9.810  0.593E-01  0.593E-01
  -9.800  0.588E-01  0.588E-01
  -9.790  0.581E-01  0.581E-01
  -9.780  0.573E-01  0.573E-01
  -9.770  0.564E-01  0.564E-01
  -9.760  0.554E-01  0.554E-01
  -9.750  0.544E-01  0.544E-01
  -9.740  0.534E-01  0.534E-01
  -9.730  0.524E-01  0.524E-01
  -9.720  0.515E-01  0.515E-01
  -9.710  0.506E-01  0.506E-01
  -9.700  0.498E-01  0.498E-01
  -9.690  0.490E-01  0.490E-01
  -9.680  0.483E-01  0.483E-01
  -9.670  0.475E-01  0.475E-01
  -9.660  0.467E-01  0.467E-01
  -9.650  0.459E-01  0.459E-01
  -9.640  0.450E-01  0.450E-01
  -9.630  0.439E-01  0.439E-01
  -9.620  0.428E-01  0.428E-01
  -9.610  0.415E-01  0.415E-01
  -9.600  0.400E-01  0.400E-01
  -9.590  0.384E-01  0.384E-01
  -9.580  0.367E-01  0.367E-01
  -9.570  0.348E-01  0.348E-01
  -9.560  0.329E-01  0.329E-01
  -9.550  0.309E-01  0.309E-01
  -9.540  0.289E-01  0.289E-01
  -9.530  0.270E-01  0.270E-01
  -9.520  0.251E-01  0.251E-01
  -9.510  0.234E-01  0.234E-01
  -9.500  0.219E-01  0.219E-01
  -9.490  0.206E-01  0.206E-01
  -9.480  0.195E-01  0.195E-01
  -9.470  0.187E-01  0.187E-01
  -9.460  0.183E-01  0.183E-01
  -9.450  0.181E-01  0.181E-01
  -9.440  0.183E-01  0.183E-01
  -9.430  0.188E-01  0.188E-01
  -9.420  0.196E-01  0.196E-01
  -9.410  0.207E-01  0.207E-01
  -9.400  0.220E-01  0.220E-01
  -9.390  0.234E-01  0.234E-01
  -9.380  0.250E-01  0.250E-01
  -9.370  0.266E-01  0.266E-01
  -9.360  0.283E-01  0.283E-01
  -9.350  0.299E-01  0.299E-01
  -9.340  0.313E-01  0.313E-01
  -9.330  0.326E-01  0.326E-01
  -9.320  0.337E-01  0.337E-01
  -9.310  0.344E-01  0.344E-01
  -9.300  0.349E-01  0.349E-01
  -9.290  0.350E-01  0.350E-01
  -9.280  0.348E-01  0.348E-01
  -9.270  0.343E-01  0.343E-01
  -9.260  0.334E-01  0.334E-01
  -9.250  0.323E-01  0.323E-01
  -9.240  0.309E-01  0.309E-01
  -9.230  0.293E-01  0.293E-01
  -9.220  0.275E-01  0.275E-01
  -9.210  0.257E-01  0.257E-01
  -9.200  0.238E-01  0.238E-01
  -9.190  0.219E-01  0.219E-01
  -9.180  0.201E-01  0.201E-01
  -9.170  0.183E-01  0.183E-01
  -9.160  0.167E-01  0.167E-01
  -9.150  0.152E-01  0.152E-01
  -9.140  0.139E-01  0.139E-01
  -9.130  0.127E-01  0.127E-01
  -9.120  0.118E-01  0.118E-01
  -9.110  0.110E-01  0.110E-01
  -9.100  0.105E-01  0.105E-01
  -9.090  0.101E-01  0.101E-01
  -9.080  0.984E-02  0.984E-02
  -9.070  0.975E-02  0.975E-02
  -9.060  0.980E-02  0.980E-02
  -9.050  0.996E-02  0.996E-02
  -9.040  0.102E-01  0.102E-01
  -9.030  0.106E-01  0.106E-01
  -9.020  0.111E-01  0.111E-01
  -9.010  0.117E-01  0.117E-01
  -9.000  0.125E-01  0.125E-01
  -8.990  0.133E-01  0.133E-01
  -8.980  0.143E-01  0.143E-01
  -8.970  0.154E-01  0.154E-01
  -8.960  0.167E-01  0.167E-01
  -8.950  0.181E-01  0.181E-01
  -8.940  0.198E-01  0.198E-01
  -8.930  0.216E-01  0.216E-01
  -8.920  0.236E-01  0.236E-01
  -8.910  0.258E-01  0.258E-01
  -8.900  0.281E-01  0.281E-01
  -8.890  0.305E-01  0.305E-01
  -8.880  0.330E-01  0.330E-01
  -8.870  0.356E-01  0.356E-01
  -8.860  0.382E-01  0.382E-01
  -8.850  0.407E-01  0.407E-01
  -8.840  0.430E-01  0.430E-01
  -8.830  0.452E-01  0.452E-01
  -8.820  0.471E-01  0.471E-01
  -8.810  0.487E-01  0.487E-01
  -8.800  0.500E-01  0.500E-01
  -8.790  0.509E-01  0.509E-01
  -8.780  0.513E-01  0.513E-01
  -8.770  0.513E-01  0.513E-01
  -8.760  0.508E-01  0.508E-01
  -8.750  0.499E-01  0.499E-01
  -8.740  0.486E-01  0.486E-01
  -8.730  0.468E-01  0.468E-01
  -8.720  0.448E-01  0.448E-01
  -8.710  0.424E-01  0.424E-01
  -8.700  0.399E-01  0.399E-01
  -8.690  0.371E-01  0.371E-01
  -8.680  0.343E-01  0.343E-01
  -8.670  0.314E-01  0.314E-01
  -8.660  0.286E-01  0.286E-01
  -8.650  0.258E-01  0.258E-01
  -8.640  0.232E-01  0.232E-01
  -8.630  0.208E-01  0.208E-01
  -8.620  0.186E-01  0.186E-01
  -8.610  0.167E-01  0.167E-01
  -8.600  0.150E-01  0.150E-01
  -8.590  0.136E-01  0.136E-01
  -8.580  0.125E-01  0.125E-01
  -8.570  0.117E-01  0.117E-01
  -8.560  0.112E-01  0.112E-01
  -8.550  0.110E-01  0.110E-01
  -8.540  0.112E-01  0.112E-01
  -8.530  0.116E-01  0.116E-01
  -8.520  0.123E-01  0.123E-01
  -8.510  0.132E-01  0.132E-01
  -8.500  0.145E-01  0.145E-01
  -8.490  0.160E-01  0.160E-01
  -8.480  0.177E-01  0.177E-01
  -8.470  0.197E-01  0.197E-01
  -8.460  0.219E-01  0.219E-01
  -8.450  0.243E-01  0.243E-01
  -8.440  0.269E-01  0.269E-01
  -8.430  0.295E-01  0.295E-01
  -8.420  0.323E-01  0.323E-01
  -8.410  0.350E-01  0.350E-01
  -8.400  0.377E-01  0.377E-01
  -8.390  0.402E-01  0.402E-01
  -8.380  0.426E-01  0.426E-01
  -8.370  0.448E-01  0.448E-01
  -8.360  0.466E-01  0.466E-01
  -8.350  0.481E-01  0.481E-01
  -8.340  0.492E-01  0.492E-01
  -8.330  0.498E-01  0.498E-01
  -8.320  0.500E-01  0.500E-01
  -8.310  0.497E-01  0.497E-01
  -8.300  0.490E-01  0.490E-01
  -8.290  0.479E-01  0.479E-01
  -8.280  0.464E-01  0.464E-01
  -8.270  0.446E-01  0.446E-01
  -8.260  0.426E-01  0.426E-01
  -8.250  0.404E-01  0.404E-01
  -8.240  0.382E-01  0.382E-01
  -8.230  0.360E-01  0.360E-01
  -8.220  0.339E-01  0.339E-01
  -8.210  0.319E-01  0.319E-01
  -8.200  0.302E-01  0.302E-01
  -8.190  0.289E-01  0.289E-01
  -8.180  0.278E-01  0.278E-01
  -8.170  0.272E-01  0.272E-01
  -8.160  0.270E-01  0.270E-01
  -8.150  0.272E-01  0.272E-01
  -8.140  0.278E-01  0.278E-01
  -8.130  0.288E-01  0.288E-01
  -8.120  0.302E-01  0.302E-01
  -8.110  0.318E-01  0.318E-01
  -8.100  0.337E-01  0.337E-01
  -8.090  0.359E-01  0.359E-01
  -8.080  0.381E-01  0.381E-01
  -8.070  0.405E-01  0.405E-01
  -8.060  0.429E-01  0.429E-01
  -8.050  0.452E-01  0.452E-01
  -8.040  0.474E-01  0.474E-01
  -8.030  0.496E-01  0.496E-01
  -8.020  0.515E-01  0.515E-01
  -8.010  0.532E-01  0.532E-01
  -8.000  0.546E-01  0.546E-01
  -7.990  0.557E-01  0.557E-01
  -7.980  0.566E-01  0.566E-01
  -7.970  0.571E-01  0.571E-01
  -7.960  0.573E-01  0.573E-01
  -7.950  0.572E-01  0.572E-01
  -7.940  0.567E-01  0.567E-01
  -7.930  0.560E-01  0.560E-01
  -7.920  0.550E-01  0.550E-01
  -7.910  0.539E-01  0.539E-01
  -7.900  0.525E-01  0.525E-01
  -7.890  0.510E-01  0.510E-01
  -7.880  0.495E-01  0.495E-01
  -7.870  0.479E-01  0.479E-01
  -7.860  0.464E-01  0.464E-01
  -7.850  0.450E-01  0.450E-01
  -7.840  0.438E-01  0.438E-01
  -7.830  0.427E-01  0.427E-01
  -7.820  0.419E-01  0.419E-01
  -7.810  0.414E-01  0.414E-01
  -7.800  0.411E-01  0.411E-01
  -7.790  0.412E-01  0.412E-01
  -7.780  0.415E-01  0.415E-01
  -7.770  0.421E-01  0.421E-01
  -7.760  0.430E-01  0.430E-01
  -7.750  0.441E-01  0.441E-01
  -7.740  0.454E-01  0.454E-01
  -7.730  0.468E-01  0.468E-01
  -7.720  0.484E-01  0.484E-01
  -7.710  0.500E-01  0.500E-01
  -7.700  0.517E-01  0.517E-01
  -7.690  0.533E-01  0.533E-01
  -7.680  0.549E-01  0.549E-01
  -7.670  0.564E-01  0.564E-01
  -7.660  0.579E-01  0.579E-01
  -7.650  0.592E-01  0.592E-01
  -7.640  0.605E-01  0.605E-01
  -7.630  0.616E-01  0.616E-01
  -7.620  0.627E-01  0.627E-01
  -7.610  0.637E-01  0.637E-01
  -7.600  0.646E-01  0.646E-01
  -7.590  0.655E-01  0.655E-01
  -7.580  0.665E-01  0.665E-01
  -7.570  0.674E-01  0.674E-01
  -7.560  0.685E-01  0.685E-01
  -7.550  0.697E-01  0.697E-01
  -7.540  0.711E-01  0.711E-01
  -7.530  0.726E-01  0.726E-01
  -7.520  0.743E-01  0.743E-01
  -7.510  0.763E-01  0.763E-01
  -7.500  0.784E-01  0.784E-01
  -7.490  0.808E-01  0.808E-01
  -7.480  0.834E-01  0.834E-01
  -7.470  0.861E-01  0.861E-01
  -7.460  0.890E-01  0.890E-01
  -7.450  0.920E-01  0.920E-01
  -7.440  0.950E-01  0.950E-01
  -7.430  0.980E-01  0.980E-01
  -7.420  0.101E+00  0.101E+00
  -7.410  0.104E+00  0.104E+00
  -7.400  0.106E+00  0.106E+00
  -7.390  0.108E+00  0.108E+00
  -7.380  0.110E+00  0.110E+00
  -7.370  0.111E+00  0.111E+00
  -7.360  0.112E+00  0.112E+00
  -7.350  0.112E+00  0.112E+00
  -7.340  0.112E+00  0.112E+00
  -7.330  0.111E+00  0.111E+00
  -7.320  0.109E+00  0.109E+00
  -7.310  0.106E+00  0.106E+00
  -7.300  0.103E+00  0.103E+00
  -7.290  0.997E-01  0.997E-01
  -7.280  0.955E-01  0.955E-01
  -7.270  0.908E-01  0.908E-01
  -7.260  0.857E-01  0.857E-01
  -7.250  0.803E-01  0.803E-01
  -7.240  0.746E-01  0.746E-01
  -7.230  0.688E-01  0.688E-01
  -7.220  0.630E-01  0.630E-01
  -7.210  0.572E-01  0.572E-01
  -7.200  0.515E-01  0.515E-01
  -7.190  0.460E-01  0.460E-01
  -7.180  0.407E-01  0.407E-01
  -7.170  0.357E-01  0.357E-01
  -7.160  0.311E-01  0.311E-01
  -7.150  0.269E-01  0.269E-01
  -7.140  0.230E-01  0.230E-01
  -7.130  0.195E-01  0.195E-01
  -7.120  0.164E-01  0.164E-01
  -7.110  0.137E-01  0.137E-01
  -7.100  0.113E-01  0.113E-01
  -7.090  0.927E-02  0.927E-02
  -7.080  0.753E-02  0.753E-02
  -7.070  0.606E-02  0.606E-02
  -7.060  0.484E-02  0.484E-02
  -7.050  0.382E-02  0.382E-02
  -7.040  0.300E-02  0.300E-02
  -7.030  0.233E-02  0.233E-02
  -7.020  0.179E-02  0.179E-02
  -7.010  0.137E-02  0.137E-02
  -7.000  0.103E-02  0.103E-02
  -6.990  0.774E-03  0.774E-03
  -6.980  0.575E-03  0.575E-03
  -6.970  0.423E-03  0.423E-03
  -6.960  0.309E-03  0.309E-03
  -6.950  0.224E-03  0.224E-03
  -6.940  0.161E-03  0.161E-03
  -6.930  0.115E-03  0.115E-03
  -6.920  0.815E-04  0.815E-04
  -6.910  0.578E-04  0.578E-04
  -6.900  0.411E-04  0.411E-04
  -6.890  0.295E-04  0.295E-04
  -6.880  0.216E-04  0.216E-04
  -6.870  0.164E-04  0.164E-04
  -6.860  0.133E-04  0.133E-04
  -6.850  0.116E-04  0.116E-04
  -6.840  0.111E-04  0.111E-04
  -6.830  0.118E-04  0.118E-04
  -6.820  0.135E-04  0.135E-04
  -6.810  0.166E-04  0.166E-04
  -6.800  0.213E-04  0.213E-04
  -6.790  0.282E-04  0.282E-04
  -6.780  0.380E-04  0.380E-04
  -6.770  0.516E-04  0.516E-04
  -6.760  0.703E-04  0.703E-04
  -6.750  0.956E-04  0.956E-04
  -6.740  0.130E-03  0.130E-03
  -6.730  0.175E-03  0.175E-03
  -6.720  0.234E-03  0.234E-03
  -6.710  0.310E-03  0.310E-03
  -6.700  0.408E-03  0.408E-03
  -6.690  0.532E-03  0.532E-03
  -6.680  0.686E-03  0.686E-03
  -6.670  0.877E-03  0.877E-03
  -6.660  0.111E-02  0.111E-02
  -6.650  0.139E-02  0.139E-02
  -6.640  0.172E-02  0.172E-02
  -6.630  0.210E-02  0.210E-02
  -6.620  0.255E-02  0.255E-02
  -6.610  0.305E-02  0.305E-02
  -6.600  0.362E-02  0.362E-02
  -6.590  0.425E-02  0.425E-02
  -6.580  0.493E-02  0.493E-02
  -6.570  0.566E-02  0.566E-02
  -6.560  0.643E-02  0.643E-02
  -6.550  0.723E-02  0.723E-02
  -6.540  0.804E-02  0.804E-02
  -6.530  0.884E-02  0.884E-02
  -6.520  0.962E-02  0.962E-02
  -6.510  0.104E-01  0.104E-01
  -6.500  0.110E-01  0.110E-01
  -6.490  0.116E-01  0.116E-01
  -6.480  0.121E-01  0.121E-01
  -6.470  0.125E-01  0.125E-01
  -6.460  0.127E-01  0.127E-01
  -6.450  0.128E-01  0.128E-01
  -6.440  0.128E-01  0.128E-01
  -6.430  0.127E-01  0.127E-01
  -6.420  0.124E-01  0.124E-01
  -6.410  0.119E-01  0.119E-01
  -6.400  0.114E-01  0.114E-01
  -6.390  0.108E-01  0.108E-01
  -6.380  0.101E-01  0.101E-01
  -6.370  0.935E-02  0.935E-02
  -6.360  0.856E-02  0.856E-02
  -6.350  0.775E-02  0.775E-02
  -6.340  0.694E-02  0.694E-02
  -6.330  0.615E-02  0.615E-02
  -6.320  0.540E-02  0.540E-02
  -6.310  0.468E-02  0.468E-02
  -6.300  0.402E-02  0.402E-02
  -6.290  0.341E-02  0.341E-02
  -6.280  0.286E-02  0.286E-02
  -6.270  0.238E-02  0.238E-02
  -6.260  0.195E-02  0.195E-02
  -6.250  0.159E-02  0.159E-02
  -6.240  0.128E-02  0.128E-02
  -6.230  0.102E-02  0.102E-02
  -6.220  0.801E-03  0.801E-03
  -6.210  0.624E-03  0.624E-03
  -6.200  0.481E-03  0.481E-03
  -6.190  0.368E-03  0.368E-03
  -6.180  0.278E-03  0.278E-03
  -6.170  0.208E-03  0.208E-03
  -6.160  0.155E-03  0.155E-03
  -6.150  0.114E-03  0.114E-03
  -6.140  0.842E-04  0.842E-04
  -6.130  0.622E-04  0.622E-04
  -6.120  0.465E-04  0.465E-04
  -6.110  0.358E-04  0.358E-04
  -6.100  0.291E-04  0.291E-04
  -6.090  0.256E-04  0.256E-04
  -6.080  0.251E-04  0.251E-04
  -6.070  0.274E-04  0.274E-04
  -6.060  0.327E-04  0.327E-04
  -6.050  0.415E-04  0.415E-04
  -6.040  0.547E-04  0.547E-04
  -6.030  0.733E-04  0.733E-04
  -6.020  0.990E-04  0.990E-04
  -6.010  0.134E-03  0.134E-03
  -6.000  0.180E-03  0.180E-03
  -5.990  0.241E-03  0.241E-03
  -5.980  0.319E-03  0.319E-03
  -5.970  0.420E-03  0.420E-03
  -5.960  0.548E-03  0.548E-03
  -5.950  0.707E-03  0.707E-03
  -5.940  0.904E-03  0.904E-03
  -5.930  0.114E-02  0.114E-02
  -5.920  0.143E-02  0.143E-02
  -5.910  0.178E-02  0.178E-02
  -5.900  0.218E-02  0.218E-02
  -5.890  0.265E-02  0.265E-02
  -5.880  0.318E-02  0.318E-02
  -5.870  0.378E-02  0.378E-02
  -5.860  0.444E-02  0.444E-02
  -5.850  0.517E-02  0.517E-02
  -5.840  0.595E-02  0.595E-02
  -5.830  0.678E-02  0.678E-02
  -5.820  0.764E-02  0.764E-02
  -5.810  0.851E-02  0.851E-02
  -5.800  0.939E-02  0.939E-02
  -5.790  0.102E-01  0.102E-01
  -5.780  0.111E-01  0.111E-01
