# E (eV)   ldos(E)   pdos(E)    pdos(E)    pdos(E)   
 -12.000  0.230E-01  0.146E-03  0.114E-01  0.114E-01
 -11.990  0.227E-01  0.157E-03  0.113E-01  0.113E-01
 -11.980  0.224E-01  0.167E-03  0.111E-01  0.111E-01
 -11.970  0.222E-01  0.175E-03  0.110E-01  0.110E-01
 -11.960  0.220E-01  0.182E-03  0.109E-01  0.109E-01
 -11.950  0.219E-01  0.187E-03  0.108E-01  0.108E-01
 -11.940  0.218E-01  0.191E-03  0.108E-01  0.108E-01
 -11.930  0.217E-01  0.192E-03  0.108E-01  0.108E-01
 -11.920  0.217E-01  0.192E-03  0.107E-01  0.107E-01
 -11.910  0.217E-01  0.189E-03  0.107E-01  0.107E-01
 -11.900  0.216E-01  0.185E-03  0.107E-01  0.107E-01
 -11.890  0.216E-01  0.179E-03  0.107E-01  0.107E-01
 -11.880  0.215E-01  0.171E-03  0.107E-01  0.107E-01
 -11.870  0.214E-01  0.162E-03  0.106E-01  0.106E-01
 -11.860  0.212E-01  0.151E-03  0.105E-01  0.105E-01
 -11.850  0.209E-01  0.141E-03  0.104E-01  0.104E-01
 -11.840  0.207E-01  0.129E-03  0.103E-01  0.103E-01
 -11.830  0.203E-01  0.118E-03  0.101E-01  0.101E-01
 -11.820  0.199E-01  0.107E-03  0.991E-02  0.991E-02
 -11.810  0.195E-01  0.967E-04  0.972E-02  0.972E-02
 -11.800  0.191E-01  0.871E-04  0.953E-02  0.953E-02
 -11.790  0.188E-01  0.786E-04  0.934E-02  0.934E-02
 -11.780  0.184E-01  0.713E-04  0.917E-02  0.917E-02
 -11.770  0.181E-01  0.655E-04  0.902E-02  0.902E-02
 -11.760  0.179E-01  0.612E-04  0.891E-02  0.891E-02
 -11.750  0.177E-01  0.586E-04  0.884E-02  0.884E-02
 -11.740  0.177E-01  0.576E-04  0.882E-02  0.882E-02
 -11.730  0.177E-01  0.582E-04  0.884E-02  0.884E-02
 -11.720  0.179E-01  0.605E-04  0.891E-02  0.891E-02
 -11.710  0.181E-01  0.644E-04  0.902E-02  0.902E-02
 -11.700  0.184E-01  0.698E-04  0.917E-02  0.917E-02
 -11.690  0.188E-01  0.764E-04  0.935E-02  0.935E-02
 -11.680  0.192E-01  0.842E-04  0.956E-02  0.956E-02
 -11.670  0.197E-01  0.930E-04  0.978E-02  0.978E-02
 -11.660  0.201E-01  0.102E-03  0.100E-01  0.100E-01
 -11.650  0.206E-01  0.112E-03  0.102E-01  0.102E-01
 -11.640  0.211E-01  0.122E-03  0.105E-01  0.105E-01
 -11.630  0.215E-01  0.132E-03  0.107E-01  0.107E-01
 -11.620  0.218E-01  0.142E-03  0.108E-01  0.108E-01
 -11.610  0.221E-01  0.150E-03  0.110E-01  0.110E-01
 -11.600  0.224E-01  0.158E-03  0.111E-01  0.111E-01
 -11.590  0.225E-01  0.164E-03  0.112E-01  0.112E-01
 -11.580  0.226E-01  0.169E-03  0.112E-01  0.112E-01
 -11.570  0.225E-01  0.172E-03  0.112E-01  0.112E-01
 -11.560  0.224E-01  0.173E-03  0.111E-01  0.111E-01
 -11.550  0.223E-01  0.173E-03  0.110E-01  0.110E-01
 -11.540  0.220E-01  0.171E-03  0.109E-01  0.109E-01
 -11.530  0.218E-01  0.167E-03  0.108E-01  0.108E-01
 -11.520  0.215E-01  0.161E-03  0.107E-01  0.107E-01
 -11.510  0.212E-01  0.154E-03  0.105E-01  0.105E-01
 -11.500  0.209E-01  0.146E-03  0.104E-01  0.104E-01
 -11.490  0.206E-01  0.137E-03  0.102E-01  0.102E-01
 -11.480  0.204E-01  0.127E-03  0.101E-01  0.101E-01
 -11.470  0.202E-01  0.117E-03  0.101E-01  0.101E-01
 -11.460  0.202E-01  0.107E-03  0.100E-01  0.100E-01
 -11.450  0.202E-01  0.976E-04  0.101E-01  0.101E-01
 -11.440  0.204E-01  0.885E-04  0.101E-01  0.101E-01
 -11.430  0.206E-01  0.802E-04  0.103E-01  0.103E-01
 -11.420  0.210E-01  0.730E-04  0.105E-01  0.105E-01
 -11.410  0.215E-01  0.670E-04  0.107E-01  0.107E-01
 -11.400  0.220E-01  0.624E-04  0.110E-01  0.110E-01
 -11.390  0.226E-01  0.594E-04  0.113E-01  0.113E-01
 -11.380  0.233E-01  0.580E-04  0.116E-01  0.116E-01
 -11.370  0.239E-01  0.582E-04  0.119E-01  0.119E-01
 -11.360  0.246E-01  0.603E-04  0.123E-01  0.123E-01
 -11.350  0.252E-01  0.641E-04  0.126E-01  0.126E-01
 -11.340  0.258E-01  0.698E-04  0.129E-01  0.129E-01
 -11.330  0.263E-01  0.772E-04  0.131E-01  0.131E-01
 -11.320  0.266E-01  0.864E-04  0.133E-01  0.133E-01
 -11.310  0.268E-01  0.973E-04  0.134E-01  0.134E-01
 -11.300  0.269E-01  0.110E-03  0.134E-01  0.134E-01
 -11.290  0.268E-01  0.124E-03  0.134E-01  0.134E-01
 -11.280  0.266E-01  0.140E-03  0.132E-01  0.132E-01
 -11.270  0.261E-01  0.157E-03  0.130E-01  0.130E-01
 -11.260  0.256E-01  0.176E-03  0.127E-01  0.127E-01
 -11.250  0.248E-01  0.197E-03  0.123E-01  0.123E-01
 -11.240  0.240E-01  0.219E-03  0.119E-01  0.119E-01
 -11.230  0.230E-01  0.242E-03  0.114E-01  0.114E-01
 -11.220  0.220E-01  0.266E-03  0.108E-01  0.108E-01
 -11.210  0.209E-01  0.292E-03  0.103E-01  0.103E-01
 -11.200  0.198E-01  0.320E-03  0.972E-02  0.972E-02
 -11.190  0.187E-01  0.348E-03  0.916E-02  0.916E-02
 -11.180  0.176E-01  0.378E-03  0.862E-02  0.862E-02
 -11.170  0.166E-01  0.408E-03  0.812E-02  0.812E-02
 -11.160  0.158E-01  0.440E-03  0.768E-02  0.768E-02
 -11.150  0.151E-01  0.472E-03  0.730E-02  0.730E-02
 -11.140  0.145E-01  0.505E-03  0.701E-02  0.701E-02
 -11.130  0.142E-01  0.538E-03  0.681E-02  0.681E-02
 -11.120  0.140E-01  0.571E-03  0.671E-02  0.671E-02
 -11.110  0.140E-01  0.603E-03  0.671E-02  0.671E-02
 -11.100  0.143E-01  0.635E-03  0.683E-02  0.683E-02
 -11.090  0.148E-01  0.665E-03  0.704E-02  0.704E-02
 -11.080  0.154E-01  0.694E-03  0.736E-02  0.736E-02
 -11.070  0.163E-01  0.722E-03  0.778E-02  0.778E-02
 -11.060  0.173E-01  0.747E-03  0.828E-02  0.828E-02
 -11.050  0.185E-01  0.771E-03  0.886E-02  0.886E-02
 -11.040  0.198E-01  0.792E-03  0.950E-02  0.950E-02
 -11.030  0.212E-01  0.812E-03  0.102E-01  0.102E-01
 -11.020  0.226E-01  0.829E-03  0.109E-01  0.109E-01
 -11.010  0.241E-01  0.844E-03  0.116E-01  0.116E-01
 -11.000  0.255E-01  0.858E-03  0.123E-01  0.123E-01
 -10.990  0.269E-01  0.869E-03  0.130E-01  0.130E-01
 -10.980  0.282E-01  0.879E-03  0.137E-01  0.137E-01
 -10.970  0.294E-01  0.888E-03  0.142E-01  0.142E-01
 -10.960  0.304E-01  0.896E-03  0.147E-01  0.147E-01
 -10.950  0.313E-01  0.902E-03  0.152E-01  0.152E-01
 -10.940  0.319E-01  0.907E-03  0.155E-01  0.155E-01
 -10.930  0.324E-01  0.912E-03  0.157E-01  0.157E-01
 -10.920  0.327E-01  0.916E-03  0.159E-01  0.159E-01
 -10.910  0.328E-01  0.919E-03  0.159E-01  0.159E-01
 -10.900  0.327E-01  0.921E-03  0.159E-01  0.159E-01
 -10.890  0.324E-01  0.924E-03  0.157E-01  0.157E-01
 -10.880  0.319E-01  0.927E-03  0.155E-01  0.155E-01
 -10.870  0.313E-01  0.931E-03  0.152E-01  0.152E-01
 -10.860  0.306E-01  0.937E-03  0.148E-01  0.148E-01
 -10.850  0.298E-01  0.945E-03  0.144E-01  0.144E-01
 -10.840  0.289E-01  0.956E-03  0.140E-01  0.140E-01
 -10.830  0.280E-01  0.971E-03  0.135E-01  0.135E-01
 -10.820  0.270E-01  0.992E-03  0.130E-01  0.130E-01
 -10.810  0.261E-01  0.102E-02  0.125E-01  0.125E-01
 -10.800  0.252E-01  0.105E-02  0.121E-01  0.121E-01
 -10.790  0.244E-01  0.109E-02  0.117E-01  0.117E-01
 -10.780  0.237E-01  0.114E-02  0.113E-01  0.113E-01
 -10.770  0.231E-01  0.119E-02  0.110E-01  0.110E-01
 -10.760  0.226E-01  0.125E-02  0.107E-01  0.107E-01
 -10.750  0.222E-01  0.131E-02  0.104E-01  0.104E-01
 -10.740  0.219E-01  0.139E-02  0.102E-01  0.102E-01
 -10.730  0.217E-01  0.146E-02  0.101E-01  0.101E-01
 -10.720  0.216E-01  0.153E-02  0.100E-01  0.100E-01
 -10.710  0.216E-01  0.161E-02  0.100E-01  0.100E-01
 -10.700  0.217E-01  0.168E-02  0.100E-01  0.100E-01
 -10.690  0.218E-01  0.175E-02  0.100E-01  0.100E-01
 -10.680  0.219E-01  0.181E-02  0.101E-01  0.101E-01
 -10.670  0.221E-01  0.186E-02  0.101E-01  0.101E-01
 -10.660  0.223E-01  0.191E-02  0.102E-01  0.102E-01
 -10.650  0.224E-01  0.194E-02  0.102E-01  0.102E-01
 -10.640  0.224E-01  0.197E-02  0.102E-01  0.102E-01
 -10.630  0.225E-01  0.198E-02  0.102E-01  0.102E-01
 -10.620  0.224E-01  0.198E-02  0.102E-01  0.102E-01
 -10.610  0.223E-01  0.197E-02  0.102E-01  0.102E-01
 -10.600  0.222E-01  0.195E-02  0.101E-01  0.101E-01
 -10.590  0.220E-01  0.192E-02  0.100E-01  0.100E-01
 -10.580  0.218E-01  0.189E-02  0.996E-02  0.996E-02
 -10.570  0.216E-01  0.185E-02  0.988E-02  0.988E-02
 -10.560  0.214E-01  0.181E-02  0.981E-02  0.981E-02
 -10.550  0.213E-01  0.177E-02  0.977E-02  0.977E-02
 -10.540  0.212E-01  0.173E-02  0.976E-02  0.976E-02
 -10.530  0.213E-01  0.169E-02  0.979E-02  0.979E-02
 -10.520  0.214E-01  0.166E-02  0.988E-02  0.988E-02
 -10.510  0.217E-01  0.164E-02  0.100E-01  0.100E-01
 -10.500  0.221E-01  0.163E-02  0.102E-01  0.102E-01
 -10.490  0.227E-01  0.162E-02  0.105E-01  0.105E-01
 -10.480  0.233E-01  0.162E-02  0.109E-01  0.109E-01
 -10.470  0.241E-01  0.164E-02  0.113E-01  0.113E-01
 -10.460  0.250E-01  0.166E-02  0.117E-01  0.117E-01
 -10.450  0.260E-01  0.169E-02  0.122E-01  0.122E-01
 -10.440  0.271E-01  0.173E-02  0.127E-01  0.127E-01
 -10.430  0.282E-01  0.177E-02  0.132E-01  0.132E-01
 -10.420  0.293E-01  0.181E-02  0.137E-01  0.137E-01
 -10.410  0.303E-01  0.185E-02  0.142E-01  0.142E-01
 -10.400  0.313E-01  0.189E-02  0.147E-01  0.147E-01
 -10.390  0.322E-01  0.192E-02  0.152E-01  0.152E-01
 -10.380  0.331E-01  0.194E-02  0.156E-01  0.156E-01
 -10.370  0.337E-01  0.195E-02  0.159E-01  0.159E-01
 -10.360  0.343E-01  0.195E-02  0.162E-01  0.162E-01
 -10.350  0.347E-01  0.194E-02  0.164E-01  0.164E-01
 -10.340  0.349E-01  0.191E-02  0.165E-01  0.165E-01
 -10.330  0.350E-01  0.187E-02  0.166E-01  0.166E-01
 -10.320  0.349E-01  0.181E-02  0.166E-01  0.166E-01
 -10.310  0.347E-01  0.174E-02  0.165E-01  0.165E-01
 -10.300  0.344E-01  0.166E-02  0.163E-01  0.163E-01
 -10.290  0.339E-01  0.158E-02  0.161E-01  0.161E-01
 -10.280  0.332E-01  0.149E-02  0.159E-01  0.159E-01
 -10.270  0.325E-01  0.140E-02  0.156E-01  0.156E-01
 -10.260  0.317E-01  0.130E-02  0.152E-01  0.152E-01
 -10.250  0.308E-01  0.122E-02  0.148E-01  0.148E-01
 -10.240  0.299E-01  0.114E-02  0.144E-01  0.144E-01
 -10.230  0.289E-01  0.106E-02  0.139E-01  0.139E-01
 -10.220  0.279E-01  0.101E-02  0.135E-01  0.135E-01
 -10.210  0.269E-01  0.959E-03  0.130E-01  0.130E-01
 -10.200  0.259E-01  0.929E-03  0.125E-01  0.125E-01
 -10.190  0.250E-01  0.916E-03  0.120E-01  0.120E-01
 -10.180  0.241E-01  0.921E-03  0.116E-01  0.116E-01
 -10.170  0.233E-01  0.943E-03  0.112E-01  0.112E-01
 -10.160  0.226E-01  0.983E-03  0.108E-01  0.108E-01
 -10.150  0.220E-01  0.104E-02  0.105E-01  0.105E-01
 -10.140  0.215E-01  0.111E-02  0.102E-01  0.102E-01
 -10.130  0.211E-01  0.120E-02  0.998E-02  0.998E-02
 -10.120  0.210E-01  0.129E-02  0.983E-02  0.983E-02
 -10.110  0.209E-01  0.140E-02  0.977E-02  0.977E-02
 -10.100  0.211E-01  0.151E-02  0.978E-02  0.978E-02
 -10.090  0.213E-01  0.162E-02  0.986E-02  0.986E-02
 -10.080  0.218E-01  0.173E-02  0.100E-01  0.100E-01
 -10.070  0.224E-01  0.184E-02  0.103E-01  0.103E-01
 -10.060  0.231E-01  0.194E-02  0.106E-01  0.106E-01
 -10.050  0.239E-01  0.202E-02  0.109E-01  0.109E-01
 -10.040  0.248E-01  0.209E-02  0.114E-01  0.114E-01
 -10.030  0.258E-01  0.214E-02  0.118E-01  0.118E-01
 -10.020  0.269E-01  0.218E-02  0.123E-01  0.123E-01
 -10.010  0.280E-01  0.219E-02  0.129E-01  0.129E-01
 -10.000  0.291E-01  0.218E-02  0.134E-01  0.134E-01
  -9.990  0.302E-01  0.215E-02  0.140E-01  0.140E-01
  -9.980  0.313E-01  0.210E-02  0.146E-01  0.146E-01
  -9.970  0.324E-01  0.203E-02  0.152E-01  0.152E-01
  -9.960  0.334E-01  0.194E-02  0.157E-01  0.157E-01
  -9.950  0.344E-01  0.184E-02  0.163E-01  0.163E-01
  -9.940  0.354E-01  0.173E-02  0.168E-01  0.168E-01
  -9.930  0.363E-01  0.161E-02  0.173E-01  0.173E-01
  -9.920  0.371E-01  0.148E-02  0.178E-01  0.178E-01
  -9.910  0.379E-01  0.135E-02  0.183E-01  0.183E-01
  -9.900  0.386E-01  0.123E-02  0.187E-01  0.187E-01
  -9.890  0.393E-01  0.110E-02  0.191E-01  0.191E-01
  -9.880  0.399E-01  0.990E-03  0.195E-01  0.195E-01
  -9.870  0.405E-01  0.885E-03  0.198E-01  0.198E-01
  -9.860  0.410E-01  0.791E-03  0.201E-01  0.201E-01
  -9.850  0.414E-01  0.710E-03  0.204E-01  0.204E-01
  -9.840  0.418E-01  0.643E-03  0.206E-01  0.206E-01
  -9.830  0.422E-01  0.591E-03  0.208E-01  0.208E-01
  -9.820  0.425E-01  0.556E-03  0.210E-01  0.210E-01
  -9.810  0.428E-01  0.537E-03  0.211E-01  0.211E-01
  -9.800  0.431E-01  0.535E-03  0.213E-01  0.213E-01
  -9.790  0.433E-01  0.549E-03  0.214E-01  0.214E-01
  -9.780  0.436E-01  0.580E-03  0.215E-01  0.215E-01
  -9.770  0.438E-01  0.628E-03  0.216E-01  0.216E-01
  -9.760  0.441E-01  0.692E-03  0.217E-01  0.217E-01
  -9.750  0.444E-01  0.772E-03  0.218E-01  0.218E-01
  -9.740  0.447E-01  0.865E-03  0.219E-01  0.219E-01
  -9.730  0.450E-01  0.972E-03  0.220E-01  0.220E-01
  -9.720  0.454E-01  0.109E-02  0.221E-01  0.221E-01
  -9.710  0.458E-01  0.122E-02  0.223E-01  0.223E-01
  -9.700  0.461E-01  0.135E-02  0.224E-01  0.224E-01
  -9.690  0.465E-01  0.149E-02  0.225E-01  0.225E-01
  -9.680  0.468E-01  0.163E-02  0.226E-01  0.226E-01
  -9.670  0.470E-01  0.177E-02  0.226E-01  0.226E-01
  -9.660  0.472E-01  0.190E-02  0.226E-01  0.226E-01
  -9.650  0.472E-01  0.203E-02  0.226E-01  0.226E-01
  -9.640  0.472E-01  0.214E-02  0.225E-01  0.225E-01
  -9.630  0.469E-01  0.223E-02  0.223E-01  0.223E-01
  -9.620  0.465E-01  0.231E-02  0.221E-01  0.221E-01
  -9.610  0.459E-01  0.237E-02  0.218E-01  0.218E-01
  -9.600  0.451E-01  0.240E-02  0.214E-01  0.214E-01
  -9.590  0.441E-01  0.241E-02  0.209E-01  0.209E-01
  -9.580  0.429E-01  0.240E-02  0.203E-01  0.203E-01
  -9.570  0.416E-01  0.236E-02  0.196E-01  0.196E-01
  -9.560  0.400E-01  0.230E-02  0.189E-01  0.189E-01
  -9.550  0.383E-01  0.222E-02  0.181E-01  0.181E-01
  -9.540  0.365E-01  0.212E-02  0.172E-01  0.172E-01
  -9.530  0.347E-01  0.201E-02  0.163E-01  0.163E-01
  -9.520  0.328E-01  0.188E-02  0.154E-01  0.154E-01
  -9.510  0.309E-01  0.174E-02  0.146E-01  0.146E-01
  -9.500  0.290E-01  0.160E-02  0.137E-01  0.137E-01
  -9.490  0.272E-01  0.146E-02  0.129E-01  0.129E-01
  -9.480  0.255E-01  0.132E-02  0.121E-01  0.121E-01
  -9.470  0.240E-01  0.118E-02  0.114E-01  0.114E-01
  -9.460  0.227E-01  0.104E-02  0.108E-01  0.108E-01
  -9.450  0.216E-01  0.917E-03  0.103E-01  0.103E-01
  -9.440  0.206E-01  0.801E-03  0.992E-02  0.992E-02
  -9.430  0.199E-01  0.694E-03  0.962E-02  0.962E-02
  -9.420  0.194E-01  0.600E-03  0.941E-02  0.941E-02
  -9.410  0.191E-01  0.517E-03  0.930E-02  0.930E-02
  -9.400  0.190E-01  0.446E-03  0.927E-02  0.927E-02
  -9.390  0.190E-01  0.388E-03  0.931E-02  0.931E-02
  -9.380  0.192E-01  0.342E-03  0.942E-02  0.942E-02
  -9.370  0.194E-01  0.309E-03  0.956E-02  0.956E-02
  -9.360  0.198E-01  0.288E-03  0.974E-02  0.974E-02
  -9.350  0.201E-01  0.279E-03  0.993E-02  0.993E-02
  -9.340  0.205E-01  0.284E-03  0.101E-01  0.101E-01
  -9.330  0.209E-01  0.301E-03  0.103E-01  0.103E-01
  -9.320  0.212E-01  0.332E-03  0.105E-01  0.105E-01
  -9.310  0.215E-01  0.376E-03  0.106E-01  0.106E-01
  -9.300  0.218E-01  0.434E-03  0.107E-01  0.107E-01
  -9.290  0.219E-01  0.507E-03  0.107E-01  0.107E-01
  -9.280  0.220E-01  0.593E-03  0.107E-01  0.107E-01
  -9.270  0.221E-01  0.694E-03  0.107E-01  0.107E-01
  -9.260  0.221E-01  0.809E-03  0.106E-01  0.106E-01
  -9.250  0.220E-01  0.936E-03  0.105E-01  0.105E-01
  -9.240  0.219E-01  0.107E-02  0.104E-01  0.104E-01
  -9.230  0.217E-01  0.122E-02  0.102E-01  0.102E-01
  -9.220  0.215E-01  0.138E-02  0.101E-01  0.101E-01
  -9.210  0.213E-01  0.154E-02  0.989E-02  0.989E-02
  -9.200  0.211E-01  0.170E-02  0.970E-02  0.970E-02
  -9.190  0.209E-01  0.186E-02  0.951E-02  0.951E-02
  -9.180  0.207E-01  0.201E-02  0.933E-02  0.933E-02
  -9.170  0.204E-01  0.216E-02  0.915E-02  0.915E-02
  -9.160  0.202E-01  0.229E-02  0.898E-02  0.898E-02
  -9.150  0.200E-01  0.240E-02  0.882E-02  0.882E-02
  -9.140  0.198E-01  0.249E-02  0.868E-02  0.868E-02
  -9.130  0.197E-01  0.255E-02  0.855E-02  0.855E-02
  -9.120  0.195E-01  0.259E-02  0.844E-02  0.844E-02
  -9.110  0.193E-01  0.261E-02  0.835E-02  0.835E-02
  -9.100  0.192E-01  0.259E-02  0.829E-02  0.829E-02
  -9.090  0.190E-01  0.255E-02  0.825E-02  0.825E-02
  -9.080  0.189E-01  0.248E-02  0.823E-02  0.823E-02
  -9.070  0.189E-01  0.239E-02  0.824E-02  0.824E-02
  -9.060  0.188E-01  0.228E-02  0.828E-02  0.828E-02
  -9.050  0.188E-01  0.215E-02  0.835E-02  0.835E-02
  -9.040  0.189E-01  0.200E-02  0.845E-02  0.845E-02
  -9.030  0.190E-01  0.185E-02  0.858E-02  0.858E-02
  -9.020  0.192E-01  0.169E-02  0.874E-02  0.874E-02
  -9.010  0.194E-01  0.153E-02  0.894E-02  0.894E-02
  -9.000  0.197E-01  0.137E-02  0.917E-02  0.917E-02
  -8.990  0.201E-01  0.121E-02  0.944E-02  0.944E-02
  -8.980  0.205E-01  0.106E-02  0.974E-02  0.974E-02
  -8.970  0.211E-01  0.922E-03  0.101E-01  0.101E-01
  -8.960  0.217E-01  0.794E-03  0.105E-01  0.105E-01
  -8.950  0.224E-01  0.678E-03  0.109E-01  0.109E-01
  -8.940  0.232E-01  0.575E-03  0.113E-01  0.113E-01
  -8.930  0.241E-01  0.485E-03  0.118E-01  0.118E-01
  -8.920  0.251E-01  0.408E-03  0.123E-01  0.123E-01
  -8.910  0.262E-01  0.344E-03  0.129E-01  0.129E-01
  -8.900  0.273E-01  0.292E-03  0.135E-01  0.135E-01
  -8.890  0.284E-01  0.251E-03  0.141E-01  0.141E-01
  -8.880  0.296E-01  0.221E-03  0.147E-01  0.147E-01
  -8.870  0.309E-01  0.201E-03  0.153E-01  0.153E-01
  -8.860  0.321E-01  0.190E-03  0.160E-01  0.160E-01
  -8.850  0.333E-01  0.188E-03  0.166E-01  0.166E-01
  -8.840  0.345E-01  0.195E-03  0.171E-01  0.171E-01
  -8.830  0.356E-01  0.210E-03  0.177E-01  0.177E-01
  -8.820  0.366E-01  0.234E-03  0.182E-01  0.182E-01
  -8.810  0.376E-01  0.267E-03  0.186E-01  0.186E-01
  -8.800  0.384E-01  0.308E-03  0.190E-01  0.190E-01
  -8.790  0.390E-01  0.359E-03  0.193E-01  0.193E-01
  -8.780  0.395E-01  0.421E-03  0.195E-01  0.195E-01
  -8.770  0.398E-01  0.493E-03  0.196E-01  0.196E-01
  -8.760  0.399E-01  0.576E-03  0.196E-01  0.196E-01
  -8.750  0.397E-01  0.670E-03  0.195E-01  0.195E-01
  -8.740  0.394E-01  0.775E-03  0.193E-01  0.193E-01
  -8.730  0.389E-01  0.892E-03  0.190E-01  0.190E-01
  -8.720  0.381E-01  0.102E-02  0.185E-01  0.185E-01
  -8.710  0.372E-01  0.116E-02  0.180E-01  0.180E-01
  -8.700  0.360E-01  0.130E-02  0.174E-01  0.174E-01
  -8.690  0.347E-01  0.145E-02  0.166E-01  0.166E-01
  -8.680  0.333E-01  0.160E-02  0.158E-01  0.158E-01
  -8.670  0.317E-01  0.175E-02  0.150E-01  0.150E-01
  -8.660  0.300E-01  0.190E-02  0.140E-01  0.140E-01
  -8.650  0.282E-01  0.204E-02  0.131E-01  0.131E-01
  -8.640  0.264E-01  0.217E-02  0.121E-01  0.121E-01
  -8.630  0.246E-01  0.229E-02  0.111E-01  0.111E-01
  -8.620  0.227E-01  0.239E-02  0.102E-01  0.102E-01
  -8.610  0.209E-01  0.247E-02  0.921E-02  0.921E-02
  -8.600  0.191E-01  0.252E-02  0.830E-02  0.830E-02
  -8.590  0.174E-01  0.255E-02  0.742E-02  0.742E-02
  -8.580  0.158E-01  0.256E-02  0.660E-02  0.660E-02
  -8.570  0.142E-01  0.254E-02  0.585E-02  0.585E-02
  -8.560  0.128E-01  0.249E-02  0.516E-02  0.516E-02
  -8.550  0.115E-01  0.242E-02  0.454E-02  0.454E-02
  -8.540  0.103E-01  0.233E-02  0.399E-02  0.399E-02
  -8.530  0.926E-02  0.222E-02  0.352E-02  0.352E-02
  -8.520  0.834E-02  0.209E-02  0.313E-02  0.313E-02
  -8.510  0.756E-02  0.195E-02  0.280E-02  0.280E-02
  -8.500  0.691E-02  0.180E-02  0.255E-02  0.255E-02
  -8.490  0.639E-02  0.165E-02  0.237E-02  0.237E-02
  -8.480  0.601E-02  0.150E-02  0.226E-02  0.226E-02
  -8.470  0.574E-02  0.134E-02  0.220E-02  0.220E-02
  -8.460  0.559E-02  0.120E-02  0.220E-02  0.220E-02
  -8.450  0.555E-02  0.106E-02  0.225E-02  0.225E-02
  -8.440  0.560E-02  0.925E-03  0.234E-02  0.234E-02
  -8.430  0.574E-02  0.803E-03  0.247E-02  0.247E-02
  -8.420  0.594E-02  0.693E-03  0.262E-02  0.262E-02
  -8.410  0.620E-02  0.594E-03  0.280E-02  0.280E-02
  -8.400  0.650E-02  0.507E-03  0.300E-02  0.300E-02
  -8.390  0.682E-02  0.432E-03  0.320E-02  0.320E-02
  -8.380  0.715E-02  0.367E-03  0.339E-02  0.339E-02
  -8.370  0.747E-02  0.313E-03  0.358E-02  0.358E-02
  -8.360  0.777E-02  0.269E-03  0.375E-02  0.375E-02
  -8.350  0.802E-02  0.234E-03  0.389E-02  0.389E-02
  -8.340  0.823E-02  0.208E-03  0.401E-02  0.401E-02
  -8.330  0.837E-02  0.190E-03  0.409E-02  0.409E-02
  -8.320  0.845E-02  0.179E-03  0.414E-02  0.414E-02
